"Piezo Voltage (V)";"Fine In 1 (V)";
77.018913;2.907186;
77.058128;2.906540;
77.097336;2.906172;
77.136551;2.905909;
77.175758;2.905679;
77.214958;2.905445;
77.254173;2.905212;
77.293343;2.905026;
77.332565;2.904790;
77.371765;2.904591;
77.410980;2.904507;
77.450188;2.904269;
77.489403;2.904071;
77.528603;2.903915;
77.567772;2.903737;
77.606987;2.903521;
77.646194;2.903338;
77.685410;2.903121;
77.724617;2.902961;
77.763832;2.902716;
77.803032;2.902433;
77.842209;2.902181;
77.881416;2.901993;
77.920631;2.901609;
77.959839;2.901459;
77.999054;2.901131;
78.038261;2.900827;
78.077461;2.900585;
78.116638;2.900211;
78.155846;2.899842;
78.195061;2.899584;
78.234268;2.899220;
78.273483;2.898806;
78.312691;2.898457;
78.351906;2.898066;
78.391068;2.897615;
78.430275;2.897223;
78.469490;2.896831;
78.508698;2.896350;
78.547913;2.895878;
78.587120;2.895482;
78.626335;2.895056;
78.665520;2.894676;
78.704712;2.894129;
78.743919;2.893625;
78.783127;2.893189;
78.822342;2.892705;
78.861549;2.892242;
78.900764;2.891736;
78.939926;2.891171;
78.979141;2.890699;
79.018349;2.890279;
79.057564;2.889692;
79.096771;2.889259;
79.135986;2.888764;
79.175194;2.888333;
79.214355;2.887894;
79.253593;2.887438;
79.292778;2.886995;
79.331993;2.886559;
79.371201;2.886132;
79.410416;2.885725;
79.449623;2.885320;
79.488800;2.884958;
79.528000;2.884545;
79.567215;2.884198;
79.606422;2.883836;
79.645630;2.883486;
79.684845;2.883146;
79.724052;2.882758;
79.763229;2.882492;
79.802429;2.882181;
79.841644;2.881852;
79.880852;2.881598;
79.920067;2.881311;
79.959274;2.881134;
79.998489;2.880846;
80.037659;2.880658;
80.076859;2.880374;
80.116074;2.880202;
80.155281;2.879981;
80.194496;2.879793;
80.233704;2.879520;
80.272919;2.879455;
80.312088;2.879153;
80.351303;2.879047;
80.390503;2.878829;
80.429710;2.878701;
80.468925;2.878500;
80.508133;2.878329;
80.547348;2.878148;
80.586525;2.877885;
80.625732;2.877677;
80.664932;2.877482;
80.704147;2.877292;
80.743355;2.877059;
80.782562;2.876771;
80.821777;2.876504;
80.860947;2.876262;
80.900162;2.875955;
80.939362;2.875710;
80.978577;2.875321;
81.017784;2.874964;
81.056999;2.874702;
81.096207;2.874347;
81.135384;2.873981;
81.174606;2.873605;
81.213791;2.873255;
81.253006;2.872877;
81.292213;2.872451;
81.331429;2.871998;
81.370636;2.871552;
81.409813;2.871114;
81.449020;2.870630;
81.488235;2.870154;
81.527435;2.869622;
81.566650;2.869178;
81.605858;2.868733;
81.645065;2.868171;
81.684242;2.867656;
81.723450;2.867144;
81.762665;2.866664;
81.801865;2.866225;
81.841080;2.865661;
81.880287;2.865116;
81.919502;2.864672;
81.958672;2.864084;
81.997879;2.863647;
82.037094;2.863126;
82.076294;2.862664;
82.115509;2.862192;
82.154716;2.861709;
82.193932;2.861265;
82.233101;2.860796;
82.272316;2.860334;
82.311523;2.859904;
82.350739;2.859415;
82.389938;2.859049;
82.429153;2.858695;
82.468361;2.858290;
82.507538;2.857980;
82.546745;2.857596;
82.585953;2.857234;
82.625168;2.856876;
82.664368;2.856560;
82.703583;2.856352;
82.742790;2.856010;
82.781967;2.855788;
82.821175;2.855470;
82.860382;2.855245;
82.899597;2.855034;
82.938797;2.854775;
82.978012;2.854580;
83.017220;2.854404;
83.056396;2.854182;
83.095619;2.853956;
83.134819;2.853797;
83.174026;2.853537;
83.213226;2.853398;
83.252441;2.853180;
83.291649;2.852971;
83.330826;2.852761;
83.370033;2.852552;
83.409248;2.852400;
83.448456;2.852157;
83.487671;2.851928;
83.526871;2.851694;
83.566086;2.851491;
83.605263;2.851238;
83.644463;2.850973;
83.683678;2.850700;
83.722885;2.850438;
83.762100;2.850133;
83.801300;2.849779;
83.840515;2.849483;
83.879684;2.849095;
83.918900;2.848739;
83.958107;2.848368;
83.997322;2.847962;
84.036530;2.847597;
84.075729;2.847157;
84.114944;2.846717;
84.154114;2.846264;
84.193329;2.845725;
84.232536;2.845296;
84.271751;2.844794;
84.310959;2.844296;
84.350174;2.843783;
84.389374;2.843269;
84.428551;2.842705;
84.467758;2.842203;
84.506966;2.841655;
84.546181;2.841109;
84.585388;2.840595;
84.624603;2.840029;
84.663803;2.839534;
84.702980;2.838970;
84.742188;2.838431;
84.781403;2.837907;
84.820610;2.837370;
84.859818;2.836868;
84.899033;2.836421;
84.938232;2.835889;
84.977409;2.835405;
85.016640;2.834976;
85.055832;2.834553;
85.095039;2.834054;
85.134254;2.833637;
85.173462;2.833231;
85.212662;2.832852;
85.251839;2.832429;
85.291046;2.832053;
85.330261;2.831748;
85.369469;2.831363;
85.408684;2.831070;
85.447891;2.830789;
85.487106;2.830467;
85.526291;2.830253;
85.565483;2.829942;
85.604691;2.829700;
85.643898;2.829504;
85.683113;2.829230;
85.722321;2.829034;
85.761536;2.828703;
85.800697;2.828514;
85.839912;2.828372;
85.879120;2.828163;
85.918335;2.827916;
85.957542;2.827685;
85.996758;2.827509;
86.035965;2.827301;
86.075127;2.827040;
86.114342;2.826895;
86.153549;2.826606;
86.192764;2.826359;
86.231972;2.826184;
86.271187;2.825863;
86.310394;2.825562;
86.349571;2.825267;
86.388771;2.825029;
86.427979;2.824697;
86.467194;2.824383;
86.506401;2.823989;
86.545616;2.823661;
86.584824;2.823340;
86.624001;2.822865;
86.663200;2.822494;
86.702415;2.822109;
86.741623;2.821684;
86.780838;2.821142;
86.820045;2.820757;
86.859261;2.820203;
86.898430;2.819683;
86.937645;2.819344;
86.976845;2.818630;
87.016052;2.818163;
87.055267;2.817605;
87.094475;2.816997;
87.133690;2.816531;
87.172859;2.815956;
87.212074;2.815433;
87.251274;2.814724;
87.290482;2.814183;
87.329697;2.813678;
87.368904;2.813062;
87.408119;2.812565;
87.447304;2.812026;
87.486504;2.811471;
87.525703;2.810917;
87.564919;2.810433;
87.604126;2.809942;
87.643333;2.809352;
87.682549;2.808941;
87.721718;2.808425;
87.760933;2.807921;
87.800133;2.807500;
87.839348;2.807039;
87.878555;2.806619;
87.917770;2.806204;
87.956978;2.805785;
87.996155;2.805401;
88.035370;2.805107;
88.074562;2.804771;
88.113777;2.804445;
88.152985;2.804083;
88.192200;2.803746;
88.231407;2.803472;
88.270584;2.803245;
88.309792;2.802883;
88.349007;2.802660;
88.388206;2.802408;
88.427422;2.802143;
88.466629;2.801892;
88.505836;2.801635;
88.545013;2.801375;
88.584221;2.801185;
88.623436;2.800946;
88.662636;2.800753;
88.701851;2.800448;
88.741058;2.800198;
88.780273;2.799952;
88.819443;2.799650;
88.858658;2.799392;
88.897865;2.799208;
88.937065;2.798890;
88.976280;2.798524;
89.015488;2.798202;
89.054703;2.797877;
89.093872;2.797534;
89.133087;2.797127;
89.172295;2.796695;
89.211510;2.796386;
89.250710;2.795935;
89.289917;2.795468;
89.329132;2.794990;
89.368317;2.794601;
89.407516;2.794037;
89.446724;2.793516;
89.485939;2.793023;
89.525139;2.792583;
89.564354;2.791932;
89.603561;2.791452;
89.642738;2.790957;
89.681946;2.790330;
89.721153;2.789726;
89.760368;2.789081;
89.799568;2.788483;
89.838783;2.787912;
89.877991;2.787278;
89.917168;2.786735;
89.956390;2.786135;
89.995590;2.785498;
90.034798;2.784864;
90.073997;2.784321;
90.113213;2.783732;
90.152420;2.783196;
90.191597;2.782625;
90.230804;2.782002;
90.270020;2.781465;
90.309227;2.780944;
90.348442;2.780404;
90.387650;2.779960;
90.426865;2.779441;
90.466026;2.779008;
90.505234;2.778507;
90.544449;2.778095;
90.583656;2.777641;
90.622871;2.777255;
90.662079;2.776871;
90.701294;2.776494;
90.740456;2.776149;
90.779671;2.775736;
90.818878;2.775425;
90.858093;2.775116;
90.897301;2.774775;
90.936508;2.774445;
90.975723;2.774230;
91.014885;2.773905;
91.054100;2.773618;
91.093307;2.773423;
91.132523;2.773045;
91.171730;2.772832;
91.210945;2.772611;
91.250153;2.772273;
91.289337;2.772004;
91.328529;2.771674;
91.367737;2.771421;
91.406952;2.771109;
91.446159;2.770815;
91.485374;2.770501;
91.524582;2.770198;
91.563759;2.769824;
91.602959;2.769424;
91.642174;2.769079;
91.681381;2.768632;
91.720589;2.768327;
91.759804;2.767789;
91.799011;2.767414;
91.838188;2.766939;
91.877411;2.766469;
91.916603;2.765951;
91.955811;2.765425;
91.995026;2.764917;
92.034233;2.764382;
92.073441;2.763781;
92.112617;2.763214;
92.151817;2.762684;
92.191032;2.762084;
92.230240;2.761528;
92.269455;2.760799;
92.308662;2.760205;
92.347878;2.759597;
92.387047;2.759050;
92.426262;2.758348;
92.465462;2.757733;
92.504669;2.757065;
92.543884;2.756423;
92.583092;2.755828;
92.622307;2.755148;
92.661476;2.754626;
92.700691;2.753947;
92.739891;2.753413;
92.779106;2.752752;
92.818314;2.752260;
92.857529;2.751630;
92.896736;2.751146;
92.935905;2.750685;
92.975121;2.750141;
93.014320;2.749576;
93.053535;2.749112;
93.092743;2.748645;
93.131958;2.748254;
93.171165;2.747800;
93.210358;2.747384;
93.249550;2.746978;
93.288750;2.746578;
93.327965;2.746271;
93.367172;2.745898;
93.406387;2.745572;
93.445595;2.745163;
93.484772;2.744913;
93.523979;2.744595;
93.563194;2.744318;
93.602394;2.744027;
93.641609;2.743692;
93.680817;2.743469;
93.720024;2.743134;
93.759201;2.742857;
93.798424;2.742581;
93.837624;2.742358;
93.876823;2.742042;
93.916039;2.741719;
93.955246;2.741372;
93.994461;2.741121;
94.033630;2.740778;
94.072845;2.740387;
94.112053;2.740051;
94.151253;2.739684;
94.190468;2.739275;
94.229675;2.738911;
94.268890;2.738521;
94.308067;2.738063;
94.347275;2.737535;
94.386482;2.737025;
94.425697;2.736634;
94.464897;2.736082;
94.504105;2.735530;
94.543320;2.735010;
94.582489;2.734424;
94.621704;2.733817;
94.660912;2.733255;
94.700127;2.732622;
94.739326;2.732051;
94.778542;2.731397;
94.817749;2.730748;
94.856926;2.730121;
94.896133;2.729457;
94.935341;2.728838;
94.974556;2.728175;
95.013756;2.727544;
95.052971;2.726912;
95.092178;2.726201;
95.131363;2.725670;
95.170563;2.725002;
95.209778;2.724364;
95.248985;2.723747;
95.288200;2.723262;
95.327400;2.722547;
95.366608;2.722011;
95.405785;2.721412;
95.444992;2.720916;
95.484207;2.720348;
95.523415;2.719836;
95.562630;2.719319;
95.601830;2.718947;
95.641045;2.718469;
95.680214;2.718066;
95.719437;2.717642;
95.758636;2.717213;
95.797844;2.716875;
95.837059;2.716503;
95.876259;2.716111;
95.915474;2.715812;
95.954643;2.715472;
95.993858;2.715204;
96.033066;2.714877;
96.072281;2.714561;
96.111488;2.714295;
96.150688;2.714005;
96.189903;2.713710;
96.229095;2.713372;
96.268288;2.713146;
96.307495;2.712825;
96.346710;2.712569;
96.385918;2.712259;
96.425133;2.711975;
96.464333;2.711637;
96.503510;2.711289;
96.542717;2.710906;
96.581924;2.710519;
96.621140;2.710185;
96.660347;2.709842;
96.699562;2.709445;
96.738762;2.709082;
96.777939;2.708599;
96.817146;2.708153;
96.856361;2.707675;
96.895569;2.707138;
96.941574;2.706649;
96.973991;2.706138;
97.013191;2.705583;
97.052368;2.705052;
97.091576;2.704481;
97.130791;2.703959;
97.169998;2.703398;
97.209213;2.702755;
97.248421;2.702157;
97.287636;2.701578;
97.326797;2.700998;
97.366005;2.700323;
97.405220;2.699754;
97.444427;2.699126;
97.483643;2.698605;
97.522850;2.697960;
97.562065;2.697332;
97.601227;2.696802;
97.640442;2.696188;
97.679649;2.695545;
97.718857;2.695033;
97.758072;2.694573;
97.797279;2.694044;
97.836494;2.693611;
97.875656;2.693066;
97.914871;2.692552;
97.954079;2.692067;
97.993294;2.691705;
98.032501;2.691301;
98.071716;2.690999;
98.110924;2.690505;
98.150108;2.690217;
98.189301;2.689912;
98.228508;2.689622;
98.267723;2.689308;
98.306931;2.689080;
98.346146;2.688797;
98.385353;2.688558;
98.424530;2.688419;
98.463730;2.688072;
98.502945;2.687915;
98.542152;2.687710;
98.581360;2.687548;
98.620575;2.687328;
98.659782;2.687103;
98.698959;2.686965;
98.738159;2.686770;
98.777374;2.686529;
98.816582;2.686371;
98.855797;2.686174;
98.895004;2.685993;
98.934212;2.685806;
98.973389;2.685494;
99.012589;2.685230;
99.051804;2.684924;
99.091011;2.684669;
99.130226;2.684385;
99.169434;2.684010;
99.208649;2.683636;
99.247818;2.683273;
99.287033;2.682917;
99.326233;2.682478;
99.365440;2.682128;
99.404655;2.681720;
99.443863;2.681249;
99.483078;2.680778;
99.522247;2.680285;
99.561462;2.679809;
99.600662;2.679314;
99.639877;2.678775;
99.679085;2.678301;
99.718300;2.677763;
99.757507;2.677219;
99.796677;2.676639;
99.835892;2.676081;
99.875092;2.675590;
99.914307;2.675012;
99.953514;2.674581;
99.992729;2.674011;
100.031937;2.673487;
100.071129;2.672955;
100.110321;2.672458;
100.149521;2.672001;
100.188736;2.671475;
100.227943;2.671115;
100.267159;2.670564;
100.306366;2.670163;
100.345543;2.669670;
100.384750;2.669285;
100.423965;2.668936;
100.463165;2.668557;
100.502380;2.668237;
100.541588;2.667960;
100.580795;2.667583;
100.619972;2.667300;
100.659180;2.667087;
100.698395;2.666785;
100.737595;2.666581;
100.776810;2.666378;
100.816017;2.666118;
100.855232;2.665957;
100.894402;2.665703;
100.933617;2.665512;
100.972824;2.665366;
101.012024;2.665132;
101.051239;2.664927;
101.090446;2.664793;
101.129662;2.664623;
101.168831;2.664424;
101.208046;2.664266;
101.247253;2.664079;
101.286469;2.663849;
101.325668;2.663630;
101.364876;2.663423;
101.404091;2.663111;
101.443260;2.662909;
101.482475;2.662598;
101.521683;2.662228;
101.560898;2.661941;
101.600098;2.661628;
101.639313;2.661244;
101.678520;2.660873;
101.717697;2.660535;
101.756905;2.660060;
101.796112;2.659594;
101.835327;2.659138;
101.874527;2.658676;
101.913742;2.658198;
101.952950;2.657600;
101.992149;2.657164;
102.031334;2.656600;
102.070549;2.656065;
102.109756;2.655486;
102.148956;2.654954;
102.188171;2.654410;
102.227379;2.653831;
102.266556;2.653215;
102.305763;2.652684;
102.344978;2.652114;
102.384186;2.651555;
102.423401;2.651064;
102.462601;2.650495;
102.501816;2.649934;
102.540985;2.649539;
102.580200;2.649017;
102.619408;2.648574;
102.658615;2.648127;
102.697830;2.647651;
102.737030;2.647253;
102.776245;2.646881;
102.815414;2.646495;
102.854630;2.646132;
102.893837;2.645740;
102.933052;2.645454;
102.972260;2.645162;
103.011459;2.644816;
103.050674;2.644650;
103.089844;2.644374;
103.129059;2.644135;
103.168266;2.643984;
103.207481;2.643776;
103.246689;2.643593;
103.285904;2.643472;
103.325104;2.643251;
103.364273;2.643066;
103.403488;2.642918;
103.442696;2.642781;
103.481911;2.642625;
103.521118;2.642457;
103.560333;2.642312;
103.599533;2.642040;
103.638710;2.641886;
103.677917;2.641731;
103.717133;2.641587;
103.756340;2.641271;
103.795547;2.641071;
103.834763;2.640831;
103.873962;2.640591;
103.913162;2.640267;
103.952347;2.639878;
103.991562;2.639591;
104.030769;2.639227;
104.069984;2.638844;
104.109192;2.638501;
104.148407;2.638058;
104.187569;2.637597;
104.226776;2.637112;
104.265991;2.636666;
104.305199;2.636139;
104.344414;2.635598;
104.383621;2.635120;
104.422836;2.634583;
104.461998;2.634036;
104.501213;2.633457;
104.540421;2.632903;
104.579628;2.632348;
104.618843;2.631827;
104.658051;2.631225;
104.697266;2.630787;
104.736427;2.630219;
104.775642;2.629636;
104.814850;2.629161;
104.854065;2.628661;
104.893272;2.628126;
104.932487;2.627693;
104.971695;2.627094;
105.010857;2.626698;
105.050072;2.626278;
105.089279;2.625907;
105.128494;2.625485;
105.167702;2.625076;
105.206917;2.624751;
105.246124;2.624324;
105.285301;2.624035;
105.324501;2.623755;
105.363716;2.623513;
105.402924;2.623274;
105.442131;2.623027;
105.481346;2.622822;
105.520554;2.622633;
105.559731;2.622411;
105.598930;2.622268;
105.638145;2.622056;
105.677353;2.621916;
105.716568;2.621846;
105.755775;2.621643;
105.794983;2.621477;
105.834167;2.621370;
105.873360;2.621231;
105.912575;2.621061;
105.951782;2.620891;
105.990997;2.620753;
106.030205;2.620535;
106.069420;2.620322;
106.108589;2.620128;
106.147804;2.619866;
106.187004;2.619608;
106.226212;2.619355;
106.265427;2.619013;
106.304634;2.618767;
106.343849;2.618308;
106.383018;2.618001;
106.422234;2.617646;
106.461433;2.617297;
106.500648;2.616905;
106.539856;2.616402;
106.579071;2.615899;
106.618279;2.615455;
106.657448;2.614929;
106.696663;2.614381;
106.735863;2.613915;
106.775078;2.613394;
106.814285;2.612834;
106.853500;2.612273;
106.892708;2.611747;
106.931885;2.611186;
106.971092;2.610599;
107.010307;2.610035;
107.049507;2.609500;
107.088715;2.608907;
107.127930;2.608334;
107.167137;2.607864;
107.206314;2.607395;
107.245522;2.606972;
107.284737;2.606432;
107.323936;2.605958;
107.363152;2.605502;
107.402359;2.605145;
107.441566;2.604716;
107.480743;2.604342;
107.519951;2.603984;
107.559166;2.603656;
107.598366;2.603267;
107.637581;2.603028;
107.676788;2.602791;
107.716003;2.602447;
107.755173;2.602273;
107.794380;2.601962;
107.833595;2.601797;
107.872795;2.601644;
107.912010;2.601416;
107.951218;2.601200;
107.990433;2.601153;
108.029602;2.601048;
108.068817;2.600910;
108.108025;2.600673;
108.147240;2.600564;
108.186440;2.600433;
108.225647;2.600280;
108.264862;2.600254;
108.304031;2.600018;
108.343246;2.599832;
108.382454;2.599655;
108.421669;2.599449;
108.460869;2.599212;
108.500084;2.599020;
108.539291;2.598739;
108.578468;2.598402;
108.617676;2.598143;
108.656883;2.597778;
108.696098;2.597415;
108.735298;2.597027;
108.774513;2.596605;
108.813683;2.596199;
108.852905;2.595748;
108.892105;2.595370;
108.931320;2.594836;
108.970528;2.594389;
109.009727;2.593844;
109.048943;2.593363;
109.088112;2.592761;
109.127327;2.592206;
109.166534;2.591659;
109.205750;2.591087;
109.244957;2.590546;
109.284172;2.589905;
109.323372;2.589296;
109.362549;2.588776;
109.401756;2.588231;
109.440964;2.587656;
109.480179;2.587124;
109.519386;2.586579;
109.558601;2.586072;
109.597801;2.585481;
109.636978;2.585030;
109.676186;2.584550;
109.715401;2.584026;
109.754608;2.583595;
109.793823;2.583230;
109.833031;2.582800;
109.872231;2.582472;
109.911407;2.582047;
109.950615;2.581743;
109.989830;2.581421;
110.029037;2.581130;
110.068253;2.580853;
110.107460;2.580642;
110.146675;2.580280;
110.185860;2.580149;
110.225044;2.579939;
110.264259;2.579657;
110.303467;2.579493;
110.342682;2.579369;
110.381889;2.579139;
110.421104;2.578909;
110.460274;2.578769;
110.499489;2.578615;
110.538689;2.578378;
110.577904;2.578224;
110.617111;2.577977;
110.656319;2.577776;
110.695534;2.577551;
110.734703;2.577373;
110.773933;2.577127;
110.813118;2.576854;
110.852333;2.576553;
110.891541;2.576278;
110.930756;2.575897;
110.969963;2.575532;
111.009140;2.575149;
111.048347;2.574767;
111.087547;2.574307;
111.126762;2.573831;
111.165970;2.573417;
111.205185;2.572900;
111.244392;2.572406;
111.283569;2.571865;
111.322777;2.571309;
111.361992;2.570682;
111.401192;2.570065;
111.440407;2.569537;
111.479614;2.568908;
111.518822;2.568269;
111.557999;2.567714;
111.597206;2.567102;
111.636421;2.566459;
111.675621;2.565849;
111.714836;2.565250;
111.754044;2.564522;
111.793259;2.563914;
111.832428;2.563428;
111.871635;2.562841;
111.910851;2.562291;
111.950050;2.561752;
111.989265;2.561143;
112.028473;2.560606;
112.067688;2.560120;
112.106865;2.559611;
112.146072;2.559222;
112.185280;2.558764;
112.224495;2.558289;
112.263695;2.557898;
112.302902;2.557463;
112.342117;2.557121;
112.381287;2.556800;
112.420502;2.556497;
112.459709;2.556169;
112.498924;2.555929;
112.538124;2.555649;
112.577339;2.555403;
112.616547;2.555098;
112.655716;2.554829;
112.694946;2.554570;
112.734138;2.554387;
112.773354;2.554135;
112.812553;2.553871;
112.851768;2.553669;
112.890976;2.553384;
112.930153;2.553127;
112.969360;2.552805;
113.008575;2.552537;
113.047783;2.552241;
113.086983;2.551919;
113.126198;2.551619;
113.165405;2.551257;
113.204582;2.550862;
113.243790;2.550458;
113.283005;2.550133;
113.322212;2.549653;
113.361427;2.549210;
113.400627;2.548720;
113.439835;2.548256;
113.479012;2.547778;
113.518219;2.547167;
113.557434;2.546645;
113.596642;2.546011;
113.635857;2.545444;
113.675056;2.544813;
113.714272;2.544134;
113.753441;2.543551;
113.792656;2.542814;
113.831863;2.542196;
113.871071;2.541500;
113.910286;2.540861;
113.949486;2.540137;
113.988701;2.539517;
114.027870;2.538864;
114.067085;2.538175;
114.106293;2.537517;
114.145508;2.536843;
114.184715;2.536130;
114.223930;2.535513;
114.263130;2.534883;
114.302299;2.534298;
114.341515;2.533715;
114.380722;2.533152;
114.419937;2.532598;
114.459145;2.532094;
114.498360;2.531592;
114.537560;2.531145;
114.576736;2.530644;
114.615967;2.530216;
114.655151;2.529833;
114.694366;2.529334;
114.733574;2.529032;
114.772789;2.528625;
114.811989;2.528302;
114.851166;2.527915;
114.890373;2.527565;
114.929588;2.527225;
114.968796;2.526965;
115.008011;2.526700;
115.047218;2.526429;
115.086418;2.526153;
115.125610;2.525753;
115.164803;2.525479;
115.204018;2.525216;
115.243225;2.524936;
115.282440;2.524587;
115.321648;2.524307;
115.360863;2.523980;
115.400024;2.523638;
115.439240;2.523205;
115.478447;2.522907;
115.517654;2.522477;
115.556870;2.522132;
115.596077;2.521691;
115.635292;2.521248;
115.674454;2.520728;
115.713669;2.520260;
115.752876;2.519731;
115.792091;2.519199;
115.831299;2.518675;
115.870514;2.518075;
115.909721;2.517485;
115.948883;2.516831;
115.988098;2.516228;
116.027306;2.515507;
116.066521;2.514867;
116.105728;2.514257;
116.144943;2.513448;
116.184151;2.512813;
116.223328;2.512119;
116.262527;2.511420;
116.301735;2.510774;
116.340950;2.510100;
116.380157;2.509301;
116.419373;2.508640;
116.458580;2.507996;
116.497757;2.507236;
116.536972;2.506606;
116.576172;2.505997;
116.615379;2.505267;
116.654594;2.504691;
116.693802;2.504056;
116.733009;2.503513;
116.772186;2.502880;
116.811386;2.502317;
116.850601;2.501793;
116.889809;2.501238;
