"Piezo Voltage (V)";"Fine In 1 (V)";
85.728195;2.916286;
85.752708;2.916028;
85.777191;2.915753;
85.801674;2.915493;
85.826195;2.915225;
85.850685;2.914933;
85.875183;2.914735;
85.899704;2.914573;
85.924210;2.914286;
85.948700;2.913995;
85.973183;2.913899;
85.997704;2.913626;
86.022194;2.913373;
86.046692;2.913249;
86.071220;2.912984;
86.095718;2.912855;
86.120209;2.912640;
86.144691;2.912430;
86.169212;2.912253;
86.193703;2.912109;
86.218201;2.911943;
86.242722;2.911819;
86.267227;2.911651;
86.291710;2.911422;
86.316193;2.911335;
86.340721;2.911218;
86.365196;2.911118;
86.389709;2.910957;
86.414230;2.910799;
86.438736;2.910600;
86.463219;2.910548;
86.487701;2.910403;
86.512230;2.910212;
86.536705;2.910165;
86.561218;2.910095;
86.585739;2.909997;
86.610237;2.909878;
86.634727;2.909698;
86.659210;2.909623;
86.683723;2.909517;
86.708214;2.909380;
86.732719;2.909276;
86.757248;2.909122;
86.781746;2.909059;
86.806236;2.908962;
86.830719;2.908849;
86.855232;2.908663;
86.879723;2.908538;
86.904228;2.908432;
86.928757;2.908266;
86.953247;2.908090;
86.977745;2.907979;
87.002213;2.907790;
87.026741;2.907661;
87.051224;2.907468;
87.075737;2.907302;
87.100250;2.907135;
87.124756;2.906901;
87.149246;2.906678;
87.173737;2.906443;
87.198250;2.906317;
87.222733;2.906123;
87.247246;2.905871;
87.271759;2.905604;
87.296249;2.905375;
87.320755;2.905126;
87.345245;2.904953;
87.369759;2.904677;
87.394241;2.904401;
87.418739;2.904071;
87.443268;2.903799;
87.467758;2.903427;
87.492264;2.903239;
87.516754;2.902907;
87.541260;2.902526;
87.565750;2.902199;
87.590248;2.901837;
87.614777;2.901481;
87.639259;2.901111;
87.663773;2.900681;
87.688263;2.900387;
87.712769;2.900004;
87.737259;2.899674;
87.761757;2.899222;
87.786278;2.898761;
87.810768;2.898412;
87.835266;2.897971;
87.859772;2.897586;
87.884277;2.897103;
87.908760;2.896624;
87.933266;2.896151;
87.957787;2.895780;
87.982277;2.895368;
88.006775;2.894872;
88.031281;2.894440;
88.055786;2.893988;
88.080269;2.893490;
88.104774;2.892944;
88.129295;2.892541;
88.153786;2.892048;
88.178284;2.891559;
88.202789;2.891050;
88.227287;2.890602;
88.251778;2.890024;
88.276276;2.889544;
88.300804;2.888984;
88.325287;2.888587;
88.349792;2.888020;
88.374298;2.887515;
88.398796;2.887013;
88.423286;2.886514;
88.447784;2.885983;
88.472313;2.885485;
88.496796;2.884987;
88.521301;2.884500;
88.545807;2.883940;
88.570305;2.883452;
88.594788;2.882934;
88.619293;2.882410;
88.643814;2.881943;
88.668304;2.881468;
88.692802;2.880911;
88.717300;2.880399;
88.741814;2.879913;
88.766296;2.879491;
88.790802;2.878923;
88.815323;2.878513;
88.839813;2.877916;
88.864311;2.877413;
88.888809;2.876991;
88.913322;2.876466;
88.937805;2.876024;
88.962303;2.875525;
88.986832;2.875063;
89.011314;2.874705;
89.035820;2.874241;
89.060318;2.873805;
89.084824;2.873348;
89.109314;2.872843;
89.133812;2.872492;
89.158340;2.872002;
89.182823;2.871561;
89.207329;2.871185;
89.231827;2.870749;
89.256332;2.870337;
89.280823;2.869853;
89.305321;2.869463;
89.329842;2.869037;
89.354332;2.868730;
89.378830;2.868273;
89.403328;2.867817;
89.427841;2.867511;
89.452316;2.867153;
89.476830;2.866772;
89.501350;2.866374;
89.525841;2.866037;
89.550339;2.865608;
89.574837;2.865237;
89.599350;2.864868;
89.623825;2.864396;
89.648338;2.864115;
89.672859;2.863755;
89.697350;2.863285;
89.721848;2.862983;
89.746346;2.862584;
89.770844;2.862221;
89.795334;2.861874;
89.819839;2.861477;
89.844368;2.860986;
89.868843;2.860700;
89.893356;2.860281;
89.917854;2.859928;
89.942352;2.859533;
89.966843;2.859202;
89.991348;2.858792;
90.015877;2.858356;
90.040352;2.857918;
90.064865;2.857580;
90.089363;2.857147;
90.113853;2.856719;
90.138344;2.856408;
90.162857;2.855983;
90.187370;2.855590;
90.211861;2.855262;
90.236366;2.854796;
90.260864;2.854395;
90.285362;2.853988;
90.309853;2.853580;
90.334373;2.853084;
90.358887;2.852676;
90.383377;2.852240;
90.407875;2.851774;
90.432373;2.851350;
90.456863;2.850935;
90.481361;2.850426;
90.505875;2.850036;
90.530396;2.849666;
90.554871;2.849210;
90.579384;2.848768;
90.603882;2.848323;
90.628365;2.847831;
90.652870;2.847425;
90.677383;2.846983;
90.701904;2.846483;
90.726379;2.845995;
90.750893;2.845580;
90.775391;2.845072;
90.799873;2.844656;
90.824379;2.844220;
90.848892;2.843661;
90.873413;2.843289;
90.897888;2.842895;
90.922394;2.842366;
90.946892;2.841918;
90.971382;2.841431;
90.995880;2.840913;
91.020409;2.840450;
91.044907;2.839965;
91.069397;2.839511;
91.093903;2.839119;
91.118401;2.838672;
91.142891;2.838218;
91.167389;2.837781;
91.191917;2.837290;
91.216415;2.836910;
91.240906;2.836469;
91.265411;2.836046;
91.289909;2.835591;
91.314392;2.835108;
91.338898;2.834781;
91.363419;2.834295;
91.387924;2.833947;
91.412407;2.833520;
91.436920;2.833098;
91.461418;2.832648;
91.485901;2.832316;
91.510406;2.831911;
91.534927;2.831508;
91.559425;2.831173;
91.583916;2.830662;
91.608429;2.830355;
91.632927;2.829921;
91.657410;2.829642;
91.681908;2.829251;
91.706436;2.828848;
91.730934;2.828497;
91.755424;2.828168;
91.779907;2.827853;
91.804428;2.827521;
91.828918;2.827260;
91.853416;2.826879;
91.877945;2.826590;
91.902435;2.826311;
91.926933;2.825977;
91.951416;2.825726;
91.975937;2.825466;
92.000427;2.825180;
92.024925;2.824865;
92.049454;2.824522;
92.073944;2.824248;
92.098434;2.824035;
92.122917;2.823721;
92.147446;2.823420;
92.171921;2.823179;
92.196434;2.822937;
92.220955;2.822585;
92.245445;2.822342;
92.269943;2.822178;
92.294434;2.821876;
92.318954;2.821663;
92.343430;2.821421;
92.367943;2.821150;
92.392464;2.820900;
92.416954;2.820711;
92.441452;2.820435;
92.465942;2.820180;
92.490448;2.819931;
92.514938;2.819683;
92.539444;2.819515;
92.563972;2.819256;
92.588448;2.819016;
92.612961;2.818774;
92.637451;2.818485;
92.661957;2.818300;
92.686447;2.818013;
92.710953;2.817703;
92.735481;2.817410;
92.759956;2.817176;
92.784470;2.816951;
92.808968;2.816736;
92.833466;2.816387;
92.857948;2.816132;
92.882462;2.815789;
92.906975;2.815517;
92.931465;2.815337;
92.955971;2.815043;
92.980469;2.814768;
93.004974;2.814402;
93.029457;2.814174;
93.053970;2.813904;
93.078484;2.813625;
93.102974;2.813245;
93.127480;2.812925;
93.151978;2.812637;
93.176483;2.812373;
93.200966;2.812079;
93.225464;2.811811;
93.249992;2.811491;
93.274475;2.811222;
93.298988;2.810896;
93.323486;2.810540;
93.347984;2.810393;
93.372475;2.810045;
93.396973;2.809691;
93.421501;2.809492;
93.445984;2.809107;
93.470497;2.808834;
93.494995;2.808516;
93.519493;2.808288;
93.543983;2.807980;
93.568481;2.807694;
93.593010;2.807415;
93.617493;2.807164;
93.641991;2.806905;
93.666496;2.806560;
93.691002;2.806379;
93.715485;2.806203;
93.739990;2.805886;
93.764511;2.805693;
93.789001;2.805513;
93.813499;2.805240;
93.838005;2.805039;
93.862511;2.804884;
93.886993;2.804633;
93.911499;2.804538;
93.936020;2.804364;
93.960510;2.804156;
93.985008;2.804060;
94.009514;2.803990;
94.034012;2.803731;
94.058502;2.803734;
94.083000;2.803566;
94.107529;2.803470;
94.132011;2.803383;
94.156517;2.803280;
94.181023;2.803222;
94.205521;2.803191;
94.230011;2.803166;
94.254509;2.803100;
94.279037;2.803149;
94.303520;2.803107;
94.328026;2.803140;
94.352531;2.803176;
94.377029;2.803175;
94.401512;2.803220;
94.426018;2.803183;
94.450539;2.803332;
94.475029;2.803447;
94.499527;2.803544;
94.524025;2.803611;
94.548538;2.803655;
94.573021;2.803767;
94.597527;2.803991;
94.622047;2.804116;
94.646538;2.804263;
94.671036;2.804385;
94.695534;2.804545;
94.720039;2.804661;
94.744530;2.804854;
94.769035;2.805031;
94.793556;2.805195;
94.818039;2.805320;
94.842545;2.805527;
94.867043;2.805754;
94.891548;2.805952;
94.916039;2.806112;
94.940536;2.806247;
94.965065;2.806437;
94.989548;2.806611;
95.014053;2.806844;
95.038551;2.806983;
95.063042;2.807197;
95.087547;2.807403;
95.112045;2.807594;
95.136574;2.807746;
95.161057;2.807981;
95.185555;2.808103;
95.210052;2.808268;
95.234550;2.808455;
95.259041;2.808547;
95.283554;2.808724;
95.308075;2.808820;
95.332565;2.808961;
95.357063;2.809057;
95.381561;2.809080;
95.406052;2.809128;
95.430550;2.809190;
95.455070;2.809318;
95.479584;2.809391;
95.504074;2.809351;
95.528572;2.809354;
95.553070;2.809464;
95.577560;2.809401;
95.602058;2.809342;
95.626572;2.809301;
95.651093;2.809334;
95.675568;2.809306;
95.700081;2.809245;
95.724579;2.809233;
95.749062;2.809058;
95.773567;2.808928;
95.798080;2.808843;
95.822601;2.808658;
95.847076;2.808559;
95.871590;2.808385;
95.896088;2.808235;
95.920570;2.808052;
95.945076;2.807802;
95.969597;2.807672;
95.994095;2.807438;
96.018585;2.807202;
96.043091;2.807008;
96.067589;2.806723;
96.092079;2.806437;
96.116577;2.806201;
96.141106;2.805890;
96.165604;2.805629;
96.190094;2.805359;
96.214600;2.804976;
96.239098;2.804792;
96.263588;2.804371;
96.288086;2.804033;
96.312614;2.803754;
96.337112;2.803378;
96.361595;2.803049;
96.386108;2.802681;
96.410606;2.802377;
96.435089;2.801971;
96.459595;2.801598;
96.484116;2.801239;
96.508621;2.800907;
96.533104;2.800468;
96.557617;2.800104;
96.582115;2.799774;
96.606598;2.799417;
96.631104;2.798982;
96.655624;2.798624;
96.680122;2.798240;
96.704613;2.797899;
96.729111;2.797447;
96.753616;2.797102;
96.778107;2.796715;
96.802605;2.796313;
96.827133;2.795836;
96.851631;2.795557;
96.876122;2.795249;
96.900620;2.794928;
96.925125;2.794575;
96.949615;2.794147;
96.974113;2.793829;
96.998642;2.793549;
97.023132;2.793180;
97.047630;2.792847;
97.072128;2.792510;
97.096634;2.792144;
97.121109;2.791895;
97.145622;2.791578;
97.170143;2.791273;
97.194633;2.791032;
97.219131;2.790613;
97.243652;2.790403;
97.268143;2.790125;
97.292618;2.789832;
97.317131;2.789629;
97.341652;2.789321;
97.366142;2.789068;
97.390640;2.788799;
97.415161;2.788602;
97.439651;2.788309;
97.464127;2.788115;
97.488640;2.787881;
97.513161;2.787703;
97.537636;2.787451;
97.562149;2.787251;
97.586655;2.787039;
97.611145;2.786804;
97.635635;2.786674;
97.660141;2.786407;
97.684669;2.786280;
97.709145;2.786031;
97.733658;2.785790;
97.758163;2.785666;
97.782654;2.785481;
97.807144;2.785229;
97.831650;2.785126;
97.856178;2.784938;
97.880653;2.784729;
97.905159;2.784494;
97.929688;2.784320;
97.954163;2.784051;
97.978645;2.783867;
98.003159;2.783687;
98.027672;2.783433;
98.052162;2.783249;
98.076668;2.782996;
98.101196;2.782764;
98.125671;2.782544;
98.150154;2.782248;
98.178986;2.781987;
98.199181;2.781687;
98.223671;2.781378;
98.248177;2.781096;
98.272705;2.780805;
98.297173;2.780509;
98.321663;2.780167;
98.346161;2.779838;
98.370689;2.779468;
98.395172;2.779162;
98.419685;2.778879;
98.444199;2.778444;
98.468681;2.778102;
98.493172;2.777667;
98.517670;2.777249;
98.542198;2.776831;
98.566681;2.776466;
98.591194;2.776003;
98.615707;2.775566;
98.640190;2.775137;
98.664680;2.774624;
98.689178;2.774147;
98.713699;2.773722;
98.738190;2.773162;
98.762688;2.772679;
98.787216;2.772197;
98.811699;2.771654;
98.836182;2.771086;
98.860687;2.770512;
98.885208;2.770028;
98.909698;2.769448;
98.934196;2.768818;
98.958725;2.768282;
98.983208;2.767652;
99.007690;2.767062;
99.032196;2.766564;
99.056717;2.765925;
99.081200;2.765277;
99.105705;2.764652;
99.130226;2.764030;
99.154709;2.763509;
99.179199;2.762860;
99.203697;2.762193;
99.228226;2.761555;
99.252708;2.760864;
99.277214;2.760250;
99.301735;2.759696;
99.326218;2.759070;
99.350708;2.758404;
99.375206;2.757806;
99.399734;2.757069;
99.424217;2.756483;
99.448723;2.755780;
99.473244;2.755194;
99.497726;2.754549;
99.522209;2.753898;
99.546715;2.753302;
99.571236;2.752632;
99.595726;2.752027;
99.620224;2.751385;
99.644753;2.750707;
99.669235;2.750161;
99.693718;2.749499;
99.718224;2.748831;
99.742744;2.748187;
99.767235;2.747573;
99.791733;2.747029;
99.816261;2.746375;
99.840736;2.745781;
99.865227;2.745142;
99.889725;2.744512;
99.914253;2.743900;
99.938736;2.743367;
99.963242;2.742716;
99.987762;2.742157;
100.012230;2.741581;
100.036736;2.740981;
100.061234;2.740340;
100.085762;2.739733;
100.110245;2.739213;
100.134750;2.738559;
100.159271;2.737984;
100.183739;2.737415;
100.208244;2.736766;
100.232742;2.736222;
100.257263;2.735563;
100.281754;2.735029;
100.306252;2.734452;
100.330780;2.733805;
100.355240;2.733250;
100.379738;2.732686;
100.404259;2.731941;
100.428772;2.731367;
100.453262;2.730809;
100.477760;2.730233;
100.502289;2.729566;
100.526749;2.729011;
100.551247;2.728344;
100.575768;2.727751;
100.600281;2.727150;
100.624756;2.726511;
100.649269;2.725959;
100.673790;2.725273;
100.698250;2.724569;
100.722755;2.723967;
100.747269;2.723301;
100.771790;2.722701;
100.796265;2.722043;
100.820778;2.721359;
100.845299;2.720723;
100.869759;2.720085;
100.894264;2.719466;
100.918777;2.718727;
100.943298;2.718133;
100.967773;2.717462;
100.992287;2.716717;
101.016808;2.716136;
101.041267;2.715419;
101.065765;2.714760;
101.090294;2.714033;
101.114792;2.713389;
101.139282;2.712749;
101.163788;2.712028;
101.188316;2.711353;
101.212776;2.710712;
101.237274;2.710018;
101.261803;2.709381;
101.286301;2.708713;
101.310791;2.708041;
101.335297;2.707393;
101.359825;2.706759;
101.384285;2.706073;
101.408783;2.705421;
101.433304;2.704795;
101.457809;2.704169;
101.482292;2.703496;
101.506805;2.702867;
101.531319;2.702274;
101.555786;2.701589;
101.580292;2.701011;
101.604813;2.700394;
101.629311;2.699755;
101.653801;2.699127;
101.678314;2.698562;
101.702827;2.697898;
101.727295;2.697390;
101.751801;2.696791;
101.776321;2.696286;
101.800819;2.695698;
101.825310;2.695174;
101.849808;2.694613;
101.874336;2.694134;
101.898804;2.693642;
101.923302;2.693145;
101.947830;2.692705;
101.972321;2.692188;
101.996819;2.691740;
102.021317;2.691285;
102.045845;2.690838;
102.070312;2.690385;
102.094810;2.690040;
102.119339;2.689594;
102.143829;2.689231;
102.168327;2.688818;
102.192841;2.688575;
102.217346;2.688200;
102.241806;2.687864;
102.266319;2.687528;
102.290840;2.687205;
102.315331;2.687002;
102.339828;2.686738;
102.364349;2.686429;
102.388855;2.686234;
102.413315;2.686007;
102.437828;2.685819;
102.462349;2.685516;
102.486839;2.685324;
102.511337;2.685165;
102.535866;2.684966;
102.560364;2.684785;
102.584824;2.684552;
102.609329;2.684460;
102.633858;2.684382;
102.658333;2.684204;
102.682846;2.684157;
102.707352;2.683981;
102.731873;2.683787;
102.756332;2.683733;
102.780838;2.683573;
102.805367;2.683462;
102.829842;2.683421;
102.854355;2.683306;
102.878876;2.683187;
102.903381;2.683161;
102.927841;2.683052;
102.952347;2.682980;
102.976860;2.682925;
103.001350;2.682726;
103.025856;2.682642;
103.050385;2.682636;
103.074883;2.682454;
103.099342;2.682390;
103.123856;2.682187;
103.148369;2.682069;
103.172859;2.681937;
103.197365;2.681762;
103.221893;2.681597;
103.246391;2.681458;
103.270851;2.681301;
103.295364;2.681021;
103.319878;2.680904;
103.344368;2.680702;
103.368874;2.680502;
103.393387;2.680214;
103.417900;2.679979;
103.442360;2.679715;
103.466858;2.679497;
103.491386;2.679245;
103.515869;2.678899;
103.540382;2.678663;
103.564896;2.678315;
103.589401;2.677987;
103.613869;2.677643;
103.638367;2.677286;
103.662895;2.676980;
103.687378;2.676722;
103.711891;2.676283;
103.736404;2.675925;
103.760895;2.675473;
103.785370;2.675177;
103.809875;2.674745;
103.834396;2.674332;
103.858887;2.673981;
103.883385;2.673610;
103.907913;2.673128;
103.932404;2.672772;
103.956879;2.672347;
103.981384;2.671953;
104.005905;2.671531;
104.030396;2.671144;
104.054893;2.670657;
104.079422;2.670224;
104.103905;2.669859;
104.128387;2.669415;
104.152893;2.668973;
104.177414;2.668608;
104.201897;2.668212;
104.226402;2.667751;
104.250923;2.667381;
104.275414;2.667055;
104.299896;2.666613;
104.324402;2.666227;
104.348923;2.665855;
104.373405;2.665589;
104.397911;2.665262;
104.422432;2.664868;
104.446922;2.664599;
104.471405;2.664295;
104.495926;2.664044;
104.520424;2.663758;
104.544914;2.663423;
104.569412;2.663279;
104.593941;2.662973;
104.618423;2.662740;
104.642906;2.662497;
104.667419;2.662368;
104.691933;2.662181;
104.716423;2.662009;
104.740921;2.661905;
104.765450;2.661812;
104.789932;2.661639;
104.814415;2.661515;
104.838943;2.661466;
104.863441;2.661446;
104.887932;2.661400;
104.912430;2.661419;
104.936951;2.661326;
104.961441;2.661357;
104.985924;2.661231;
105.010437;2.661446;
105.034950;2.661478;
105.059433;2.661481;
105.083939;2.661512;
105.108459;2.661606;
105.132950;2.661694;
105.157433;2.661926;
105.181946;2.661957;
105.206459;2.662058;
105.230942;2.662169;
105.255447;2.662316;
105.279968;2.662362;
105.304451;2.662485;
105.328926;2.662610;
105.353455;2.662774;
105.377960;2.662874;
105.402451;2.662990;
105.426949;2.663105;
105.451477;2.663311;
105.475960;2.663350;
105.500435;2.663555;
105.524963;2.663660;
105.549469;2.663728;
105.573959;2.663838;
105.598457;2.663939;
105.622986;2.664014;
105.647469;2.664074;
105.671944;2.664075;
105.696465;2.664130;
105.720978;2.664119;
105.745453;2.664207;
105.769966;2.664163;
105.794487;2.664179;
105.818977;2.664155;
105.843452;2.664127;
105.867973;2.664037;
105.892487;2.663942;
105.916962;2.663845;
105.941475;2.663699;
105.965996;2.663613;
105.990486;2.663429;
106.014961;2.663298;
106.039482;2.663152;
106.063995;2.662907;
106.088470;2.662646;
106.112976;2.662376;
106.137505;2.662180;
106.161980;2.661943;
106.186462;2.661630;
106.210991;2.661328;
106.235489;2.661079;
106.259979;2.660761;
106.284485;2.660422;
106.309013;2.660119;
106.333488;2.659671;
106.357971;2.659257;
106.382500;2.658960;
106.406998;2.658488;
106.431488;2.658135;
106.455994;2.657670;
106.480507;2.657196;
106.504997;2.656770;
106.529480;2.656312;
106.554001;2.655928;
106.578499;2.655469;
106.602989;2.654993;
106.627502;2.654634;
106.652016;2.654105;
106.676506;2.653636;
106.700989;2.653140;
106.725510;2.652604;
106.750008;2.652166;
106.774498;2.651718;
106.799011;2.651203;
106.823524;2.650765;
106.848007;2.650313;
106.872490;2.649813;
106.897018;2.649496;
106.921509;2.648932;
106.946007;2.648537;
106.970505;2.648135;
106.995033;2.647700;
107.019516;2.647320;
107.043999;2.646878;
107.068527;2.646500;
107.093018;2.646111;
107.117516;2.645684;
107.142014;2.645351;
107.166542;2.645037;
107.191025;2.644634;
107.215508;2.644297;
107.240036;2.643949;
107.264519;2.643663;
107.289017;2.643378;
107.313538;2.643113;
107.338043;2.642852;
107.362534;2.642702;
107.387016;2.642383;
107.411537;2.642072;
107.436028;2.641880;
107.460526;2.641672;
107.485054;2.641484;
107.509552;2.641232;
107.534042;2.641085;
107.558525;2.640929;
107.583046;2.640735;
107.607536;2.640583;
107.632034;2.640418;
107.656555;2.640278;
107.681061;2.640129;
107.705544;2.640050;
107.730026;2.640053;
107.754555;2.639771;
107.779030;2.639596;
107.803543;2.639477;
107.828064;2.639377;
107.852570;2.639271;
107.877052;2.639185;
107.901535;2.639054;
107.926064;2.638931;
107.950539;2.638811;
107.975052;2.638786;
107.999573;2.638544;
108.024071;2.638365;
108.048561;2.638265;
108.073044;2.638076;
108.097557;2.637932;
108.122047;2.637780;
108.146553;2.637580;
108.171082;2.637434;
108.195580;2.637250;
108.220070;2.637034;
108.244553;2.636854;
108.269066;2.636594;
108.293556;2.636409;
108.318062;2.636199;
108.342590;2.635891;
108.367088;2.635582;
108.391579;2.635335;
108.416046;2.635062;
108.440575;2.634696;
108.465057;2.634444;
108.489571;2.634091;
108.514084;2.633686;
108.538589;2.633317;
108.563080;2.632972;
108.587555;2.632559;
108.612083;2.632186;
108.636566;2.631778;
108.661079;2.631442;
108.685593;2.630911;
108.710098;2.630514;
108.734589;2.630039;
108.759079;2.629523;
108.783592;2.629154;
108.808075;2.628682;
108.832573;2.628274;
108.857101;2.627780;
108.881592;2.627179;
108.906097;2.626824;
108.930573;2.626318;
108.955093;2.625742;
108.979584;2.625185;
109.004082;2.624784;
109.028610;2.624355;
109.053093;2.623844;
109.077606;2.623301;
109.102097;2.622738;
109.126602;2.622300;
109.151093;2.621771;
109.175591;2.621300;
109.200111;2.620744;
109.224602;2.620251;
109.249100;2.619730;
109.273590;2.619340;
109.298111;2.618850;
109.322594;2.618398;
109.347099;2.617890;
109.371620;2.617528;
109.396111;2.617105;
109.420609;2.616665;
109.445114;2.616307;
109.469620;2.615887;
109.494102;2.615456;
109.518608;2.615168;
109.543129;2.614783;
109.567619;2.614387;
109.592117;2.614067;
109.616608;2.613749;
109.641121;2.613347;
109.665611;2.613067;
109.690109;2.612768;
109.714638;2.612395;
109.739120;2.612155;
109.763626;2.611873;
109.788132;2.611650;
109.812630;2.611407;
109.837120;2.611154;
109.861618;2.610954;
109.886147;2.610809;
109.910629;2.610590;
109.935135;2.610433;
109.959641;2.610189;
109.984138;2.610123;
110.008621;2.609954;
110.033127;2.609849;
110.057648;2.609689;
110.082138;2.609568;
110.106636;2.609474;
110.131134;2.609270;
110.155647;2.609146;
110.180130;2.609003;
110.204636;2.608883;
110.229156;2.608815;
110.253647;2.608675;
110.278145;2.608551;
110.302650;2.608436;
110.327156;2.608294;
110.351639;2.608181;
110.376137;2.608037;
110.400665;2.607943;
110.425148;2.607844;
110.449654;2.607693;
110.474159;2.607597;
110.498657;2.607408;
110.523148;2.607306;
110.547646;2.607128;
110.572174;2.607033;
110.596657;2.606915;
110.621162;2.606751;
110.645668;2.606568;
